   DEPTH          CALI       S-SONIC   P-SONIC      GR           LITH    RESISTIVITY     NPHI       POROS        RHOB        SWARCH       SW_I         VP        VSH          VS
   9000.0000      6.1286    178.8280     88.8867    160.9218      3.0000      4.9214      0.3486      0.1092      2.4698      1.0000      0.7702  11250.2725      0.9698   5591.9639
   9000.5000      5.9918    181.2715     90.5499    119.7864      3.0000      6.6175      0.3148      0.1132      2.4633      1.0000      0.7616  11043.6318      0.8617   5516.5864
   9001.0000      5.8803    168.4101     87.0060     75.5445      3.0000      9.3524      0.2887      0.1042      2.4781      1.0000      0.7816  11493.4600      0.8129   5937.8862
   9001.5000      5.8284    174.9667     91.5972     53.4645      3.0000     11.9935      0.2580      0.1723      2.3656      1.0000      0.6569  10917.3701      0.5303   5715.3726
   9002.0000      5.7668    166.7289     90.2862     54.7457      2.0000     12.8803      0.2280      0.2000      2.3200      0.9168      0.7259  11075.8926      0.3656   5997.7588
   9002.5000      5.7226    155.0090     85.9573     76.4369      2.0000     12.2081      0.2190      0.1895      2.3373      0.9902      0.7524  11633.6807      0.3698   6451.2402
   9003.0000      5.7927    154.0712     84.9262     89.2611      3.0000     11.2589      0.2218      0.1625      2.3819      1.0000      0.8208  11774.9346      0.4551   6490.5044
   9003.5000      5.8568    151.4190     83.2722     87.6085      3.0000      9.9324      0.2279      0.1379      2.4224      1.0000      0.7140  12008.8076      0.5427   6604.1904
   9004.0000      5.9059    153.1800     83.1999    105.6867      3.0000      7.7222      0.2337      0.1102      2.4682      1.0000      0.7684  12019.2471      0.6385   6528.2686
   9004.5000      5.9814    157.6157     84.3300    121.3513      3.0000      6.3198      0.2458      0.1021      2.4816      1.0000      0.7870  11858.1738      0.6964   6344.5464
   9005.0000      6.0355    167.5705     86.5796    124.0923      3.0000      5.5778      0.2787      0.0874      2.5058      1.0000      0.8253  11550.0625      0.8321   5967.6372
   9005.5000      6.1210    177.7755     89.0135    137.2647      3.0000      5.0628      0.3060      0.0845      2.5106      1.0000      0.8339  11234.2510      0.9187   5625.0737
   9006.0000      6.1905    186.4114     91.0782    152.0396      3.0000      4.8935      0.3260      0.0870      2.5064      1.0000      0.8265  10979.5742      0.9686   5364.4790
   9006.5000      6.1531    186.5302     91.4260    149.6271      3.0000      5.2386      0.3207      0.0938      2.4952      1.0000      0.8077  10937.8027      0.9338   5361.0620
   9007.0000      6.0697    175.6742     88.8719    109.0996      3.0000      6.0389      0.3036      0.1023      2.4812      1.0000      0.7866  11252.1533      0.8610   5692.3560
   9007.5000      5.9139    169.8490     87.6900     55.4140      3.0000      7.5562      0.2822      0.1072      2.4731      1.0000      0.7753  11403.8037      0.7857   5887.5840
   9008.0000      5.7481    175.5817     90.0719     29.5875      3.0000     11.1168      0.2774      0.1253      2.4432      1.0000      0.7378  11102.2422      0.7201   5695.3555
   9008.5000      5.6333    175.1796     91.0742     19.1391      2.0000     23.6469      0.2714      0.1633      2.3806      0.8096      0.8209  10980.0635      0.5946   5708.4258
   9009.0000      5.5914    167.3616     90.1850     13.5438      2.0000     36.1219      0.2704      0.2299      2.2707      0.4751      0.6541  11088.3184      0.4015   5975.0869
   9009.5000      5.6139    165.9613     91.5034     16.6047      1.0000     42.4153      0.2545      0.2832      2.1827      0.3608      0.0776  10928.5605      0.2035   6025.5000
   9010.0000      5.6539    163.2370     91.0340     17.1299      1.0000     71.1057      0.2480      0.2975      2.1592      0.2646      0.0687  10984.9043      0.1443   6126.0615
   9010.5000      5.7025    161.4252     90.1789     12.9921      1.0000     52.0023      0.2463      0.2896      2.1721      0.3184      0.0736  11089.0713      0.1620   6194.8208
   9011.0000      5.7146    162.7360     90.5199     11.9616      1.0000     59.6421      0.2498      0.2871      2.1763      0.2992      0.0752  11047.2988      0.1793   6144.9224
   9011.5000      5.7209    162.7800     90.4587     14.9498      1.0000     53.5162      0.2575      0.2918      2.1686      0.3116      0.0723  11054.7725      0.1877   6143.2607
   9012.0000      5.7382    164.5279     91.2588     15.7647      1.0000     48.3297      0.2585      0.2981      2.1581      0.3219      0.0683  10957.8506      0.1726   6077.9980
   9012.5000      5.7514    162.4214     90.4818     15.9563      1.0000     38.3028      0.2577      0.2980      2.1582      0.3627      0.0684  11051.9473      0.1704   6156.8237
   9013.0000      5.7731    160.6240     89.7912     15.7583      1.0000     31.6814      0.2560      0.2961      2.1614      0.4022      0.0696  11136.9463      0.1709   6225.7197
   9013.5000      5.8215    163.2281     90.6650     14.5507      1.0000     29.9118      0.2531      0.2888      2.1734      0.4239      0.0742  11029.6191      0.1837   6126.3945
   9014.0000      5.8782    165.7276     91.6261     16.8200      1.0000     29.6383      0.2511      0.2876      2.1754      0.4276      0.0750  10913.9189      0.1813   6033.9980
   9014.5000      5.9348    165.1400     91.6517     18.4745      1.0000     29.3947      0.2467      0.2924      2.1676      0.4229      0.0720  10910.8750      0.1553   6055.4697
   9015.0000      6.0414    166.7505     92.1849     20.8761      1.0000     23.1613      0.2513      0.2944      2.1643      0.4749      0.0708  10847.7646      0.1627   5996.9824
   9015.5000      6.1373    167.8436     92.1369     23.1908      1.0000     19.0899      0.2607      0.2872      2.1761      0.5365      0.0754  10853.4199      0.2100   5957.9272
   9016.0000      6.1483    165.0727     90.9860     23.1839      1.0000     15.8766      0.2545      0.2763      2.1941      0.6111      0.0823  10990.7012      0.2236   6057.9365
   9016.5000      6.1000    159.3265     88.9346     28.2144      1.0000     14.5420      0.2365      0.2626      2.2167      0.6700      0.0911  11244.2178      0.2113   6276.4209
   9017.0000      6.0305    156.6886     87.4090     36.1925      2.0000     12.9466      0.2325      0.2375      2.2581      0.7802      0.6376  11440.4648      0.2713   6382.0859
   9017.5000      5.9788    156.8521     86.8534     38.1510      2.0000     12.1377      0.2336      0.2129      2.2988      0.8923      0.6981  11513.6533      0.3450   6375.4307
   9018.0000      5.9194    156.4114     86.4228     32.2492      2.0000     13.2691      0.2321      0.2000      2.3199      0.9027      0.7306  11571.0156      0.3772   6393.3950
   9018.5000      5.8944    158.1143     87.2647     26.8156      2.0000     14.3047      0.2331      0.2098      2.3038      0.8312      0.7060  11459.3848      0.3523   6324.5371
   9019.0000      5.9206    168.3480     91.1974     26.2953      2.0000     15.4946      0.2439      0.2287      2.2726      0.7367      0.6593  10965.2275      0.3292   5940.0771
   9019.5000      5.9820    173.6568     92.9204     26.0752      2.0000     16.6672      0.2690      0.2486      2.2399      0.6572      0.6119  10761.9023      0.3442   5758.4863
   9020.0000      6.0186    180.8054     95.6557     22.0987      2.0000     19.2143      0.2752      0.2649      2.2129      0.5761      0.5743  10454.1602      0.3152   5530.8076
   9020.5000      6.0101    180.1801     95.9648     21.1974      2.0000     18.8529      0.2743      0.2816      2.1854      0.5499      0.5376  10420.4912      0.2648   5550.0010
   9021.0000      5.9416    178.9150     95.9771     20.6673      1.0000     18.2041      0.2702      0.2926      2.1672      0.5403      0.0722  10419.1494      0.2218   5589.2471
   9021.5000      5.8974    177.1242     95.6413     17.4141      1.0000     19.1347      0.2650      0.2972      2.1596      0.5192      0.0693  10455.7295      0.1937   5645.7573
   9022.0000      5.9530    169.2883     93.3293     19.9311      1.0000     19.3324      0.2448      0.2950      2.1632      0.5199      0.0707  10714.7539      0.1421   5907.0820
   9022.5000      6.0534    156.2517     88.5682     23.4129      1.0000     18.5406      0.2102      0.2693      2.2057      0.5780      0.0871  11290.7373      0.1170   6399.9316
   9023.0000      6.1668    150.3846     85.3273     21.0018      2.0000     16.6546      0.1949      0.2158      2.2940      0.7492      0.6923  11719.5723      0.2260   6649.6157
   9023.5000      6.2540    151.3372     84.2292     20.3467      3.0000     13.4616      0.2085      0.1640      2.3794      1.0000      0.6725  11872.3682      0.4127   6607.7622
   9024.0000      6.2360    154.7763     84.8512     23.4879      3.0000     12.3964      0.2333      0.1590      2.3877      1.0000      0.6806  11785.3438      0.4979   6460.9385
   9024.5000      6.1925    151.6321     84.1805     30.3145      3.0000     10.7006      0.2440      0.1923      2.3327      1.0000      0.6291  11879.2344      0.4335   6594.9102
   9025.0000      6.1742    157.4233     87.1821     40.8676      2.0000      9.4453      0.2389      0.2230      2.2821      0.9721      0.6749  11470.2383      0.3313   6352.2988
   9025.5000      6.1768    164.0337     89.7349     59.4194      3.0000      7.4674      0.2247      0.2130      2.2985      1.0000      0.5986  11143.9395      0.3190   6096.3071
   9026.0000      6.2388    167.4812     88.9916     89.0890      3.0000      6.4402      0.2240      0.1347      2.4278      1.0000      0.7224  11237.0107      0.5408   5970.8179
   9026.5000      6.5137    162.8933     86.1651    129.4973      3.0000      6.1139      0.2437      0.1012      2.4830      1.0000      0.7913  11605.6279      0.6929   6138.9863
   9027.0000      6.9154    165.8961     86.1632    157.9233      3.0000      4.2524      0.2722      0.0863      2.5077      1.0000      0.8306  11605.8828      0.8171   6027.8682
   9027.5000      7.1158    169.0599     86.1613    172.0180      3.0000      3.3639      0.3293      0.0992      2.4863      1.0000      0.7962  11606.1426      0.9433   5915.0640
   9028.0000      7.2178    170.5211     86.1594    183.2683      3.0000      2.8220      0.3887      0.1012      2.4831      1.0000   -999.2500  11606.3984      1.0000   5864.3750
   9028.5000      7.0299    170.5139     86.1575    178.9147      3.0000      2.5200      0.4158      0.1012      2.4831      1.0000   -999.2500  11606.6533      1.0000   5864.6250
   9029.0000      6.7767    170.5066     86.1555    174.9161      3.0000      2.6112      0.3944      0.1012      2.4831      1.0000   -999.2500  11606.9131      1.0000   5864.8750
   9029.5000      6.9031    170.5066     86.1537    170.1731      3.0000      3.0257      0.3757      0.1012      2.4831      1.0000   -999.2500  11607.1650      1.0000   5864.8750
   9030.0000      7.0140    168.8361     86.1517    174.6328      3.0000      3.3539      0.3286      0.1011      2.4831      1.0000      0.7918  11607.4258      0.9356   5922.9048
   9030.5000      7.0224    170.3578     86.1499    180.4115      3.0000      3.3052      0.3493      0.1011      2.4831      1.0000      0.7918  11607.6807      0.9947   5869.9966
   9031.0000      6.9233    170.4848     86.1480    185.5626      3.0000      3.3321      0.3633      0.1011      2.4831      1.0000   -999.2500  11607.9365      1.0000   5865.6250
   9031.5000      6.8929    170.4739     86.1460    195.7549      3.0000      3.3914      0.3976      0.0932      2.4963      1.0000   -999.2500  11608.1963      1.0000   5866.0000
   9032.0000      6.6366    170.4703     86.1441    182.4363      3.0000      3.3471      0.4147      0.0842      2.5111      1.0000   -999.2500  11608.4521      1.0000   5866.1250
   9032.5000      6.3395    170.4630     86.1422    148.0178      3.0000      3.7029      0.3837      0.0883      2.5043      1.0000   -999.2500  11608.7080      1.0000   5866.3750
   9033.0000      6.1097    183.1696     90.2827     95.0817      3.0000      5.1479      0.3292      0.0952      2.4930      1.0000      0.8068  11076.3252      0.9543   5459.4214
   9033.5000      5.9533    172.4204     89.3341     53.2318      3.0000      7.5682      0.2647      0.1233      2.4465      1.0000      0.7446  11193.9277      0.6895   5799.7783
   9034.0000      5.9366    163.1722     88.0447     34.9842      3.0000      8.9155      0.2334      0.1664      2.3754      1.0000      0.6699  11357.8643      0.4771   6128.4951
   9034.5000      5.9204    158.7085     87.4875     38.3444      3.0000     10.0616      0.2194      0.1962      2.3262      1.0000      0.6244  11430.1992      0.3521   6300.8594
   9035.0000      5.9033    159.0023     87.7198     43.4032      2.0000     11.9362      0.2105      0.1924      2.3326      0.9881      0.7558  11399.9287      0.3376   6289.2183
   9035.5000      5.8938    158.5663     87.1999     41.6282      3.0000     13.4926      0.2049      0.1719      2.3664      1.0000      0.6616  11467.9072      0.3800   6306.5098
   9036.0000      5.8783    159.7948     87.3631     39.3023      3.0000     17.7721      0.2047      0.1597      2.3865      0.9568      0.6810  11446.4805      0.4143   6258.0239
   9036.5000      5.8444    159.9658     87.5904     33.3312      2.0000     18.4402      0.2127      0.1745      2.3620      0.8649      0.8026  11416.7764      0.3947   6251.3354
   9037.0000      5.8292    162.5602     89.0028     26.6467      2.0000     17.1707      0.2310      0.2117      2.3008      0.7507      0.7069  11235.6064      0.3408   6151.5684
   9037.5000      5.9231    174.9352     94.0444     26.6859      2.0000     18.4959      0.2464      0.2501      2.2373      0.6195      0.6120  10633.2803      0.2752   5716.4014
   9038.0000      6.0338    174.1455     94.3658     29.1532      1.0000     17.1224      0.2480      0.2727      2.2001      0.5951      0.0858  10597.0615      0.2152   5742.3247
   9038.5000      6.0518    177.7269     95.6299     28.4146      1.0000     19.3434      0.2514      0.2761      2.1945      0.5527      0.0836  10456.9775      0.2153   5626.6118
   9039.0000      6.0751    177.2222     95.2397     26.6134      1.0000     16.9373      0.2509      0.2683      2.2074      0.6075      0.0887  10499.8281      0.2360   5642.6328
   9039.5000      6.0343    171.6436     92.9682     28.4417      2.0000     14.2228      0.2490      0.2558      2.2279      0.6942      0.5990  10756.3682      0.2663   5826.0269
   9040.0000      6.0048    166.6692     91.1094     28.7291      2.0000     15.2501      0.2390      0.2433      2.2486      0.7016      0.6290  10975.8193      0.2735   5999.9102
   9040.5000      6.0286    164.1072     90.3633     30.0761      2.0000     12.5353      0.2186      0.2302      2.2701      0.8163      0.6611  11066.4375      0.2524   6093.5771
   9041.0000      6.0357    157.8156     87.9112     34.3314      2.0000     11.7443      0.2073      0.2154      2.2946      0.8977      0.6986  11375.1133      0.2627   6336.5078
   9041.5000      6.0497    156.6483     87.3180     38.7244      2.0000     11.6945      0.1979      0.1998      2.3204      0.9643      0.7389  11452.3936      0.2803   6383.7261
   9042.0000      6.0732    154.1854     86.2252     40.5365      3.0000     11.8070      0.1917      0.1872      2.3411      1.0000      0.6388  11597.5361      0.2984   6485.6968
   9042.5000      6.0610    151.2351     84.8875     48.0526      3.0000      9.9227      0.1895      0.1764      2.3590      1.0000      0.6555  11780.2979      0.3233   6612.2227
   9043.0000      6.0610    149.8488     83.6973     75.6871      3.0000      7.8335      0.2027      0.1600      2.3861      1.0000      0.6814  11947.8154      0.4079   6673.3936
   9043.5000      6.2031    151.5765     83.0773    104.2490      3.0000      6.9601      0.2223      0.1205      2.4512      1.0000      0.7515  12036.9805      0.5766   6597.3301
   9044.0000      6.3608    153.7870     82.6771    107.4129      3.0000      7.4869      0.2330      0.0745      2.5271      1.0000      0.8698  12095.2461      0.7387   6502.4995
   9044.5000      6.2061    156.0739     82.9129     87.3268      3.0000      9.3156      0.2312      0.0459      2.5742      1.0000      1.0173  12060.8516      0.8150   6407.2212
   9045.0000      5.9706    163.5559     85.7147     66.5302      3.0000     11.2546      0.2350      0.0630      2.5460      1.0000      0.9159  11666.6104      0.7771   6114.1182
   9045.5000      5.9013    157.9975     84.8616     47.0640      3.0000     14.8348      0.2383      0.1127      2.4641      1.0000      0.7677  11783.8945      0.6448   6329.2129
   9046.0000      5.8415    171.7682     91.0536     35.3808      3.0000     14.1642      0.2369      0.1712      2.3676      1.0000      0.6640  10982.5439      0.4734   5821.7979
   9046.5000      5.7988    169.6344     91.5120     38.2942      2.0000     13.5325      0.2273      0.2067      2.3089      0.8669      0.7226  10927.5342      0.3444   5895.0322
   9047.0000      5.8151    164.4147     89.9729     49.7720      2.0000     14.6366      0.2179      0.2101      2.3033      0.8203      0.7140  11114.4580      0.3079   6082.1821
   9047.5000      5.7926    155.6062     86.1653     64.9267      3.0000     11.5194      0.2068      0.1767      2.3585      1.0000      0.6556  11605.5977      0.3719   6426.4805
   9048.0000      5.8542    156.1727     85.6999     89.9791      3.0000      8.4670      0.1960      0.1366      2.4246      1.0000      0.7217  11668.6309      0.4555   6403.1685
   9048.5000      5.9838    161.6849     86.4437    116.7728      3.0000      5.6866      0.2203      0.1078      2.4721      1.0000      0.7785  11568.2197      0.6070   6184.8682
   9049.0000      6.2101    166.2485     86.0795    143.0468      3.0000      4.1843      0.2955      0.1008      2.4836      1.0000      0.7946  11617.1689      0.8418   6015.0918
   9049.5000      6.3189    168.0734     86.0776    156.2231      3.0000      3.7834      0.3149      0.0946      2.4939      1.0000      0.8100  11617.4248      0.9152   5949.7798
   9050.0000      6.2619    168.4564     86.0757    142.9318      3.0000      4.3666      0.2960      0.0704      2.5338      1.0000      0.8852  11617.6807      0.9302   5936.2529
   9050.5000      6.1453    166.0730     85.6861    119.2942      3.0000      6.3795      0.2572      0.0477      2.5713      1.0000      1.0041  11670.5029      0.8845   6021.4482
   9051.0000      5.9540    156.9096     83.3093     91.1525      3.0000      9.4540      0.2248      0.0449      2.5759      1.0000      1.0252  12003.4580      0.7997   6373.0977
   9051.5000      5.9096    156.8433     84.0873     74.1304      3.0000     11.5256      0.2102      0.0676      2.5384      1.0000      0.8963  11892.4033      0.6930   6375.7886
   9052.0000      5.9280    168.3959     88.1171     59.0872      3.0000     13.0364      0.2390      0.1015      2.4825      1.0000      0.7934  11348.5352      0.6786   5938.3867
   9052.5000      5.9211    171.6974     89.9004     36.5894      3.0000     19.2334      0.2565      0.1471      2.4073      0.9911      0.7040  11123.4229      0.5983   5824.1982
   9053.0000      5.8654    177.5468     93.2255     20.7567      2.0000     40.4101      0.2704      0.2132      2.2981      0.4807      0.7079  10726.6758      0.4489   5632.3184
   9053.5000      5.8326    174.5518     94.0382     15.3978      2.0000     50.0592      0.2656      0.2739      2.1981      0.3419      0.5597  10633.9736      0.2622   5728.9600
   9054.0000      5.8427    169.2529     93.2045     14.4517      1.0000    130.0610      0.2642      0.3106      2.1376      0.1866      0.0622  10729.0928      0.1534   5908.3169
